# Wilkinson Microwave Anisotropy Probe (WMAP) 3-year data release.
# WMAP 3-Year Combined TT Power Spectrum, version 2.0 (March 2006)
# Reference = WMAP Explanatory Supplement: http://lambda.gsfc.nasa.gov/
# Column 1 = multipole moment l
# Column 2 = TT power spectrum, units = uK^2, =  l(l+1)/2pi * C_l.
# Column 3 = 'Error' derived from diagonal terms of Fisher matrix, units = uK^2.
#             Included only as an estimate of their magnitude.  The
#             multipole moments are slightly coupled, so a correct
#             treatment of errors requires use of the entire Fisher matrix.
# Column 4 = portion of column3 error attributed to measurement errors,
#             in "2SN + NN" form, units = uK^2.
# Column 5 = portion of column3 error attributed to cosmic variance, 
#             assuming the best-fit LCDM model described in
#             "Three-Year WMAP Observations: Implications for Cosmology", 
#             Spergel et al. (2006). Units = uK^2
# 
# The 3-yr TT power spectrum is produced by combining the  
# Maximum Likelihood estimated spectrum from l = 2-10 with the 
# pseudo-C_l based cross-power spectra for l > 10.  The errors 
# quoted in column 3 are all from the pseudo-C_l method.  The 
# actual ML errors are asymmetric.  The following table gives the 68% and 95% 
# ML confidence level (CL) intervals (including cosmic variance) in uK^2: 
# 
# 
#   l   dT2  -95%  -68%  +68%  +95% 
#  -------------------------------- 
#   2   211    51    87   721  2884 
#   3  1041   348   544  2401  5732 
#   4   731   271   421  1431  3134 
#   5  1521   646   951  2731  5165 
#   6   661   291   426  1111  1990 
#   7  1331   629   893  2131  3581 
#   8   671   332   461  1041  1671 
#   9   631   308   432   971  1521 
#  10   751   393   536  1111  1681 
#
# (taken from table 7 of "Three-Year WMAP Observations: Temperature Analysis
# Hinshaw et al (2006)) 
# 
# Note: the v2 likelihood code delivered with the three-year data release 
# uses the ML solution up to l=12. 
# 
# Revision History:
#  v2  : initial release
# 
    2     211.0000     866.3292       7.0977     866.3292
    3    1041.0000     682.1742       7.5349     682.1742
    4     731.0000     558.4538       7.8580     558.4538
    5    1521.0000     474.4803       8.1495     474.4803
    6     661.0000     415.2689       8.4336     415.2689
    7    1331.0000     372.4932       8.7251     372.4932
    8     671.0000     340.7971       9.0278     340.7971
    9     631.0000     316.5380       9.3391     316.5380
   10     751.0000     297.8543       9.6626     297.8543
   11    1163.6960     289.1480      10.0978     288.9716
   12     729.3301     276.7127      10.4337     276.5159
   13     710.3536     266.6047      10.7759     266.3869
   14     911.0194     258.3928      11.1256     258.1532
   15     838.3107     251.5797      11.4795     251.3176
   16     676.3671     245.7855      11.8347     245.5004
   17    1043.5229     240.9765      12.1947     240.6678
   18     735.4813     237.1273      12.5633     236.7943
   19    1005.6870     233.9479      12.9361     233.5900
   20     852.3668     231.1732      13.3085     230.7898
   21     668.0229     228.8016      13.6821     228.3921
   22     462.0531     226.8519      14.0591     226.4159
   23     651.8333     225.2395      14.4388     224.7763
   24     928.8911     223.8650      14.8191     223.3740
   25     817.2878     222.7132      15.2004     222.1939
   26     921.2870     221.7899      15.5839     221.2418
   27    1104.0220     221.0811      15.9701     220.5036
   28    1420.9740     220.5682      16.3591     219.9607
   29     959.2290     220.1977      16.7495     219.5598
   30     955.1577     219.9759      17.1423     219.3070
   31    1108.2390     219.8420      17.5355     219.1416
   32    1618.1910     219.8510      17.9318     219.1185
   33    1155.2980     219.9533      18.3296     219.1882
   34    1073.2260     220.1827      18.7309     219.3845
   35     874.9117     220.4922      19.1336     219.6604
   36    1095.5170     220.8572      19.5376     219.9913
   37    1458.9600     221.2931      19.9433     220.3926
   38    1333.8250     221.8149      20.3519     220.8793
   39    1391.7770     222.4180      20.7634     221.4467
   40    1973.2860     223.0797      21.1772     222.0722
   41    1289.6180     223.8152      21.5938     222.7711
   42    1199.7180     224.6029      22.0128     223.5216
   43    1459.8500     225.4223      22.4331     224.3033
   44    1340.0890     226.2893      22.8558     225.1321
   45    1045.2910     227.1842      23.2803     225.9883
   46    1055.8850     228.1228      23.7072     226.8876
   47    1577.3409     229.1031      24.1361     227.8282
   48     965.6293     230.1234      24.5680     228.8082
   49    1537.5790     231.1820      25.0021     229.8260
   50    1569.8760     232.2940      25.4399     230.8967
   51    1144.3311     233.4575      25.8814     232.0184
   52    1633.3130     234.6543      26.3256     233.1729
   53    1117.9430     235.8833      26.7723     234.3591
   54    1176.9830     237.1432      27.2218     235.5757
   55    1556.5551     238.4174      27.6733     236.8059
   56    1557.6260     239.7364      28.1284     238.0805
   57    1596.9060     241.0522      28.5847     239.3514
   58    1735.0320     242.4112      29.0446     240.6649
   59    1156.7230     243.7814      29.5069     241.9891
   60    1984.2629     245.1927      29.9727     243.3539
   61    1590.2510     246.6290      30.4417     244.7431
   62    1935.6970     248.0896      30.9136     246.1560
   63    1718.6650     249.5738      31.3886     247.5921
   64    1462.0010     251.0956      31.8675     249.0651
   65    1560.1940     252.6396      32.3495     250.5599
   66    1563.3210     254.2196      32.8356     252.0901
   67    1570.8770     255.8204      33.3247     253.6406
   68    1848.7100     257.4416      33.8169     255.2109
   69    2297.4199     259.0827      34.3128     256.8005
   70    1822.3160     260.7573      34.8124     258.4230
   71    1721.0300     262.4507      35.3153     260.0638
   72    1474.0389     264.1624      35.8212     261.7224
   73    2642.2329     265.9059      36.3317     263.4122
   74    2089.1851     267.6670      36.8454     265.1189
   75    2023.9160     269.4588      37.3633     266.8558
   76    1744.7150     271.2672      37.8848     268.6087
   77    2025.3070     273.1053      38.4105     270.3907
   78    1882.5980     274.9593      38.9395     272.1880
   79    1666.2200     276.8289      39.4719     274.0003
   80    2328.7041     278.7138      40.0078     275.8274
   81    2279.2019     280.6008      40.5462     277.6559
   82    2783.3879     282.5157      41.0889     279.5117
   83    1924.5341     284.4322      41.6341     281.3686
   84    1718.3290     286.3762      42.1840     283.2523
   85    2490.2510     288.3344      42.7374     285.1495
   86    2493.0281     290.3192      43.2952     287.0728
   87    2437.3999     292.3303      43.8575     289.0217
   88    1860.8770     294.3547      44.4234     290.9832
   89    2424.6550     296.4047      44.9938     292.9698
   90    2237.0420     298.4799      45.5690     294.9809
   91    2578.1460     300.5800      46.1489     297.0162
   92    2437.8540     302.6924      46.7321     299.0632
   93    2867.4319     304.8169      47.3191     301.1216
   94    2122.9829     306.9533      47.9100     303.1913
   95    2132.6899     309.1017      48.5044     305.2722
   96    2376.8301     311.2377      49.1010     307.3402
   97    2578.6299     313.3856      49.7011     309.4193
   98    1830.4780     315.5332      50.3038     311.4975
   99    2755.3340     317.6926      50.9108     313.5869
  100    3032.9299     319.8636      51.5213     315.6870
  101    2715.1531     322.0462      52.1357     317.7981
  102    2904.2959     324.2401      52.7540     319.9198
  103    2584.3279     326.4338      53.3753     322.0405
  104    3061.8831     328.6503      54.0013     324.1833
  105    2116.1121     330.8778      54.6314     326.3366
  106    2750.1909     333.1050      55.2645     328.4886
  107    3124.8530     335.3432      55.9017     330.6509
  108    3693.3550     337.5809      56.5414     332.8122
  109    2912.2251     339.8408      57.1861     334.9948
  110    3307.6521     342.0890      57.8333     337.1649
  111    2778.4370     344.3481      58.4842     339.3452
  112    3010.2549     346.6180      59.1396     341.5356
  113    2481.4961     348.8875      59.7976     343.7248
  114    2111.7061     351.1566      60.4590     345.9128
  115    3311.7810     353.4256      61.1239     348.0999
  116    3560.3259     355.6942      61.7913     350.2859
  117    4494.0151     357.9737      62.4630     352.4820
  118    3703.7910     360.2421      63.1363     354.6663
  119    3465.8899     362.5215      63.8155     356.8605
  120    2860.3611     364.7898      64.4955     359.0431
  121    4312.8862     367.0584      65.1797     361.2250
  122    3222.8701     369.3270      65.8664     363.4062
  123    3476.5820     371.5852      66.5555     365.5762
  124    2995.6040     373.8441      67.2496     367.7457
  125    3195.4880     376.0924      67.9439     369.9041
  126    3562.6851     378.3415      68.6429     372.0624
  127    3657.9980     380.5701      69.3435     374.1993
  128    3419.0979     382.7993      70.0453     376.3362
  129    3313.1750     385.0193      70.7516     378.4627
  130    3807.7991     387.2192      71.4583     380.5685
  131    3241.3501     389.4206      72.1699     382.6747
  132    3165.4619     391.5920      72.8801     384.7503
  133    3668.5000     393.7653      73.5959     386.8264
  134    3743.5200     395.9192      74.3111     388.8828
  135    4098.4790     398.0545      75.0285     390.9196
  136    4631.7241     400.1716      75.7479     392.9370
  137    3787.3899     402.2805      76.4700     394.9455
  138    3704.3340     404.3613      77.1921     396.9250
  139    4350.5952     406.4345      77.9176     398.8958
  140    4038.3889     408.4802      78.6435     400.8383
  141    4328.7158     410.5086      79.3707     402.7625
  142    4359.7041     412.5102      80.0992     404.6588
  143    4272.7070     414.4949      80.8285     406.5375
  144    3806.2371     416.4630      81.5597     408.3987
  145    5076.8740     418.3952      82.2906     410.2229
  146    4115.0420     420.3214      83.0249     412.0400
  147    4065.7229     422.2120      83.7581     413.8206
  148    3751.7610     424.0774      84.4922     415.5751
  149    3582.8540     425.9277      85.2289     417.3134
  150    4429.7769     427.7436      85.9651     419.0161
  151    4443.5791     429.5348      86.7013     420.6935
  152    4348.8452     431.3117      87.4401     422.3553
  153    4999.2432     433.0452      88.1759     423.9731
  154    3974.1941     434.7649      88.9151     425.5757
  155    4682.0928     436.4518      89.6541     427.1444
  156    4251.4541     438.1060      90.3920     428.6796
  157    4526.0659     439.7375      91.1313     430.1909
  158    4977.5952     441.3465      91.8704     431.6787
  159    4935.0879     442.9145      92.6096     433.1244
  160    4934.5942     444.4603      93.3483     434.5469
  161    4460.4980     445.9754      94.0881     435.9375
  162    4282.2231     447.4597      94.8275     437.2962
  163    4535.4111     448.9135      95.5661     438.6233
  164    4705.4019     450.3278      96.3036     439.9099
  165    4668.3232     451.7216      97.0419     441.1749
  166    4632.4502     453.0767      97.7794     442.3999
  167    4869.3462     454.4024      98.5154     443.5947
  168    4950.8008     455.6996      99.2533     444.7593
  169    4958.0830     456.9584      99.9882     445.8849
  170    4330.8599     458.1800     100.7219     446.9720
  171    4519.7280     459.3735     101.4557     448.0298
  172    5133.1470     460.5302     102.1885     449.0496
  173    5073.0649     461.6594     102.9209     450.0407
  174    4603.1401     462.7523     103.6518     450.9945
  175    5098.5532     463.8006     104.3814     451.9021
  176    5151.4312     464.8220     105.1094     452.7819
  177    4918.8311     465.8080     105.8362     453.6252
  178    4913.4692     466.7504     106.5616     454.4234
  179    6031.7622     467.6667     107.2856     455.1944
  180    5209.8921     468.5400     108.0077     455.9211
  181    4064.4460     469.3789     108.7273     456.6125
  182    4494.8711     470.1757     109.4461     457.2600
  183    4820.3569     470.9388     110.1629     457.8728
  184    5384.5000     471.6598     110.8765     458.4423
  185    5483.6162     472.3481     111.5894     458.9778
  186    4763.7798     472.9950     112.2991     459.4706
  187    5064.0801     473.6010     113.0063     459.9211
  188    5876.7900     474.1750     113.7124     460.3383
  189    6184.5210     474.7001     114.4153     460.7052
  190    5481.0430     475.1935     115.1152     461.0394
  191    5558.4941     475.6385     115.8116     461.3239
  192    5903.6719     476.0528     116.5065     461.5761
  193    5651.4009     476.4194     117.1973     461.7794
  194    5293.4360     476.7474     117.8866     461.9424
  195    4600.0459     477.0281     118.5706     462.0571
  196    5519.8120     477.2790     119.2529     462.1407
  197    5903.1641     477.4752     119.9303     462.1680
  198    5808.9888     477.6338     120.6052     462.1563
  199    5473.7148     477.7552     121.2771     462.1060
  200    5774.2861     477.8309     121.9440     462.0086
  201    5207.9658     477.8615     122.6068     461.8649
  202    5561.5532     477.8475     123.2664     461.6749
  203    5888.1709     477.7891     123.9214     461.4389
  204    5972.7388     477.6864     124.5718     461.1574
  205    5484.9268     477.5482     125.2193     460.8388
  206    5361.2642     477.3578     125.8599     460.4669
  207    4999.2788     477.1248     126.4982     460.0503
  208    5038.4668     476.8400     127.1291     459.5809
  209    4642.7500     476.5211     127.7568     459.0757
  210    6008.3428     476.1515     128.3788     458.5184
  211    5324.9482     475.7318     128.9951     457.9093
  212    5734.4609     475.2701     129.6062     457.2570
  213    5760.4419     474.7591     130.2117     456.5535
  214    5601.5142     474.2149     130.8132     455.8154
  215    6762.9121     473.6139     131.4082     455.0187
  216    5597.3340     472.9800     131.9980     454.1879
  217    5285.1382     472.2976     132.5812     453.3070
  218    6046.9048     471.5756     133.1604     452.3846
  219    5196.7832     470.8135     133.7337     451.4207
  220    6255.6538     470.0041     134.3012     450.4076
  221    6207.3638     469.1630     134.8629     449.3617
  222    5992.6558     468.2753     135.4196     448.2670
  223    5943.0801     467.3483     135.9689     447.1319
  224    5389.6509     466.3833     136.5140     445.9566
  225    5838.9238     465.3797     137.0527     444.7413
  226    5698.0908     464.3382     137.5862     443.4862
  227    5867.6411     463.2665     138.1142     442.1995
  228    5052.0879     462.1494     138.6349     440.8656
  229    4924.2832     460.9951     139.1503     439.4925
  230    5363.1992     459.8112     139.6599     438.0883
  231    5545.5049     458.5905     140.1642     436.6455
  232    5999.6782     457.3329     140.6612     435.1641
  233    5964.0562     456.0389     141.1524     433.6443
  234    4378.2720     454.7159     141.6372     432.0943
  235    5630.4790     453.3571     142.1165     430.5062
  236    6276.4531     451.9623     142.5885     428.8804
  237    5092.2959     450.5395     143.0552     427.2248
  238    6065.1650     449.0812     143.5154     425.5318
  239    5451.3682     447.5872     143.9676     423.8015
  240    5845.9839     446.0659     144.4144     422.0418
  241    5417.2192     444.5175     144.8560     420.2530
  242    5185.1421     442.9339     145.2892     418.4274
  243    5485.3872     441.3235     145.7170     416.5729
  244    5067.0791     439.6782     146.1363     414.6819
  245    6250.3940     438.0067     146.5505     412.7624
  246    5521.7158     436.3084     146.9577     410.8143
  247    5815.6191     434.5840     147.3594     408.8380
  248    5493.3481     432.8255     147.7522     406.8257
  249    4564.0479     431.0406     148.1374     404.7855
  250    5259.2861     429.2299     148.5166     402.7172
  251    5238.2041     427.3936     148.8895     400.6211
  252    5956.3442     425.5239     149.2533     398.4897
  253    5017.4380     423.6361     149.6113     396.3383
  254    5255.2690     421.7231     149.9626     394.1594
  255    5123.1099     419.7775     150.3056     391.9456
  256    5515.8379     417.8137     150.6412     389.7121
  257    5255.0898     415.8249     150.9694     387.4514
  258    5393.3169     413.8116     151.2911     385.1637
  259    4706.0928     411.7729     151.6035     382.8490
  260    5648.0879     409.7101     151.9090     380.5075
  261    5183.3101     407.6227     152.2067     378.1394
  262    5728.8950     405.5178     152.4964     375.7520
  263    5778.5088     403.3889     152.7787     373.3380
  264    4789.2808     401.2431     153.0537     370.9050
  265    4402.8501     399.0731     153.3201     368.4457
  266    5468.0488     396.8867     153.5801     365.9674
  267    4801.2412     394.6830     153.8309     363.4704
  268    5465.7041     392.4633     154.0755     360.9545
  269    4808.2241     390.2267     154.3117     358.4198
  270    4469.1499     387.9743     154.5417     355.8665
  271    5161.0332     385.7058     154.7639     353.2946
  272    5646.7808     383.4278     154.9789     350.7113
  273    4854.3008     381.1337     155.1858     348.1095
  274    5265.8281     378.8309     155.3865     345.4965
  275    4123.8398     376.5116     155.5781     342.8651
  276    4016.6470     374.1839     155.7637     340.2224
  277    5233.9922     371.8546     155.9436     337.5758
  278    4628.9731     369.5092     156.1146     334.9109
  279    5204.2622     367.1558     156.2801     332.2347
  280    4235.3442     364.7931     156.4366     329.5476
  281    4425.3169     362.4294     156.5884     326.8565
  282    5308.9170     360.0565     156.7315     324.1542
  283    5480.2241     357.6820     156.8681     321.4480
  284    4594.7910     355.3004     157.0005     318.7307
  285    3807.2849     352.9162     157.1237     316.0095
  286    4832.9912     350.5308     157.2413     313.2842
  287    4060.0549     348.1437     157.3521     310.5550
  288    4187.3809     345.7489     157.4560     307.8147
  289    4804.7539     343.3593     157.5544     305.0774
  290    4389.3008     340.9688     157.6472     302.3360
  291    3625.2549     338.5828     157.7327     299.5976
  292    4451.5908     336.1964     157.8134     296.8551
  293    4442.8330     333.8154     157.8886     294.1155
  294    4339.0820     331.4327     157.9564     291.3716
  295    4192.3628     329.0554     158.0184     288.6306
  296    4316.6548     326.6833     158.0745     285.8924
  297    4390.7080     324.3188     158.1294     283.1568
  298    3808.2310     321.9582     158.1756     280.4239
  299    4007.6870     319.6021     158.2143     277.6936
  300    4563.7822     317.2540     158.2525     274.9659
  301    3312.6230     314.9160     158.2823     272.2477
  302    4155.6279     312.5915     158.3109     269.5387
  303    3361.8010     310.2725     158.3338     266.8322
  304    4213.2109     307.9557     158.3451     264.1279
  305    4101.4229     305.6610     158.3600     261.4398
  306    3435.9270     303.3728     158.3714     258.7539
  307    3582.3640     301.1010     158.3757     256.0838
  308    3678.5720     298.8347     158.3748     253.4159
  309    3686.0820     296.5873     158.3718     250.7636
  310    3648.3550     294.3595     158.3683     248.1270
